 SiO2 Density=2.2
 Energy(eV), Delta, Beta
  30.  0.111903027  0.163769349
  31.7943592  0.107600786  0.148323968
  33.6960373  0.103540242  0.134458765
  35.7114601  0.100406297  0.121891528
  37.8474312  0.0980121195  0.107569121
  40.1111603  0.093124859  0.0940968767
  42.5102806  0.0875475556  0.0822546631
  45.0529022  0.0818145126  0.0719060227
  47.7476006  0.0763252825  0.0628500581
  50.6034737  0.0712603629  0.0541012287
  53.6301651  0.0654692128  0.0462152064
  56.8378868  0.0596932173  0.0395214036
  60.2374725  0.0540895946  0.0338322856
  63.8403854  0.0488462262  0.0290573128
  67.6587982  0.044014927  0.0249156877
  71.7056046  0.0395138487  0.0212823506
  75.9944458  0.0352248326  0.0180477705
  80.5398178  0.0309814643  0.0152737927
  85.3570633  0.0269311592  0.0130443973
  90.4624252  0.0230100304  0.0112036457
  95.8731613  0.0187336989  0.00965243857
  101.607513  0.0161699262  0.0144878216
  107.684845  0.013587187  0.0123255216
  114.125687  0.0125494143  0.0124032078
  120.951752  0.0125872614  0.01294755
  128.186096  0.0126196565  0.0120287435
  135.853149  0.0129647516  0.0106139844
  143.97879  0.0117289275  0.00931282062
  152.590439  0.0112213995  0.00868218485
  161.717163  0.0103535596  0.0077614733
  171.389786  0.0104505988  0.00701679429
  181.64093  0.0096270917  0.00555919809
  192.505203  0.0088273054  0.0047233454
  204.019302  0.00805686787  0.00400867453
  216.222076  0.00734538725  0.00342303421
  229.154739  0.00670316163  0.00289473776
  242.860901  0.00607446209  0.00243513566
  257.386902  0.00549557339  0.00204488868
  272.781677  0.00495199906  0.00171183737
  289.09726  0.00445108628  0.00143270369
  306.388733  0.00399429537  0.00119632308
  324.714417  0.0035743094  0.000996461604
  344.1362  0.00319186598  0.000830051489
  364.719635  0.00284704845  0.000691443798
  386.53421  0.00253284886  0.000567676907
  409.653564  0.0022417889  0.0004654761
  434.155701  0.00197439292  0.000381661666
  460.123383  0.00172654237  0.000312897784
  487.644257  0.00148929982  0.000255265128
  516.811157  0.0012349122  0.000208116209
  547.722595  0.000748017512  0.000588520023
  580.482971  0.00107368431  0.000481263356
  615.202759  0.00103397935  0.00039359022
  651.999146  0.000962718623  0.000320615043
  690.99646  0.000880104024  0.000261137757
  732.326233  0.000799785892  0.000213780222
  776.128052  0.000722789904  0.000174327433
  822.549744  0.000650526956  0.000141333119
  871.748047  0.000583028246  0.000114706752
  923.888916  0.000521914102  9.33254487E-05
  979.148499  0.000466293684  7.52810811E-05
  1037.71313  0.00041564877  6.07035181E-05
  1099.78076  0.000369925518  4.89323247E-05
  1165.56067  0.000328861322  3.95597526E-05
  1235.27515  0.000292106677  3.19806895E-05
  1309.15918  0.000259198656  2.58159016E-05
  1387.46252  0.000229689947  2.08244601E-05
  1470.44946  0.000203210206  1.67937505E-05
  1558.39966  0.000179313953  1.35061164E-05
  1651.61047  0.000157422226  1.0851506E-05
  1750.39648  0.000136266084  8.71411794E-06
  1855.09106  0.000113553258  2.35307562E-05
  1966.04761  0.00011141882  1.92187945E-05
  2083.64038  0.00010219722  1.56867009E-05
  2208.26709  9.25514905E-05  1.27573794E-05
  2340.34766  8.33289087E-05  1.03544699E-05
  2480.32837  7.47673403E-05  8.38828782E-06
  2628.6814  6.69299334E-05  6.78376455E-06
  2785.90771  5.98175466E-05  5.47764876E-06
  2952.53809  5.3396041E-05  4.41651855E-06
  3129.13525  4.76205532E-05  3.55618022E-06
  3316.29443  4.24402569E-05  2.85984106E-06
  3514.64868  3.78025252E-05  2.29700572E-06
  3724.86621  3.36577577E-05  1.84286034E-06
  3947.65771  2.99576604E-05  1.47687706E-06
  4183.77441  2.66574916E-05  1.18235175E-06
  4434.01367  2.37164841E-05  9.45845443E-07
  4699.2207  2.10970848E-05  7.56047882E-07
  4980.28955  1.87652295E-05  6.03935462E-07
  5278.17041  1.66900427E-05  4.82098699E-07
  5593.86816  1.48438621E-05  3.84603936E-07
  5928.44775  1.32016512E-05  3.06653249E-07
  6283.03955  1.17411846E-05  2.44368493E-07
  6658.83984  1.04424025E-05  1.94633358E-07
  7057.11768  9.28754889E-06  1.5494733E-07
  7479.21729  8.2606357E-06  1.23299529E-07
  7926.56348  7.34754758E-06  9.80773862E-08
  8400.66602  6.53567486E-06  7.79846019E-08
  8903.12598  5.81375389E-06  6.19869738E-08
  9435.6377  5.17178796E-06  4.92573591E-08
  10000.002  4.60093861E-06  3.9131379E-08